R Spectrum 	p27bio1.spe
Two Sides ChiSqr Confidence interval Experiment-wise	0.05	 Bonf. corrected	0.000174216
Data dim:	400	550
Window dim:	256	512	Position:	0

 1	4138.18254	 0.00663	 5.95303	 2.00000	1
 2	816.99663	 0.05589	 4.02029	 4.00000	1
 3	418.65886	 0.16989	 2.89451	 8.00000	1
 4	121.22829	 0.21603	 2.63975	10.00000	1
 5	118.21249	 0.31898	 2.21987	16.00000	1
 6	67.59693	 0.31898	 2.21987	16.00000	1
 7	58.99997	 0.34503	 2.13460	18.00000	1
 8	33.46739	 0.40767	 1.95304	24.00000	1
 9	27.79967	 0.44027	 1.86926	28.00000	1
10	19.44629	 0.46780	 1.80328	32.00000	1
11	25.30814	 0.45458	 1.83445	30.00000	1
12	15.40942	 0.46780	 1.80328	32.00000	1
13	22.32306	 0.53027	 1.66720	44.00000	1
14	14.19313	 0.52144	 1.68539	42.00000	1
15	15.75684	 0.54648	 1.63460	48.00000	1
16	15.06467	 0.53027	 1.66720	44.00000	1
17	10.88028	 0.56106	 1.60615	52.00000	1
18	13.55253	 0.56781	 1.59322	54.00000	1
19	 9.57328	 0.58628	 1.55871	60.00000	1
20	 8.38604	 0.59730	 1.53865	64.00000	1
21	 8.91922	 0.58040	 1.56957	58.00000	1
22	10.45589	 0.61684	 1.50405	72.00000	1
23	 8.18063	 0.60745	 1.52053	68.00000	1
24	 9.15250	 0.61223	 1.51210	70.00000	1
25	 9.40500	 0.64129	 1.46236	84.00000	1
26	 7.50989	 0.63369	 1.47514	80.00000	1
27	 7.08326	 0.64129	 1.46236	84.00000	1
28	 7.09320	 0.63755	 1.46862	82.00000	1
29	 7.49980	 0.64843	 1.45053	88.00000	1
30	 7.92137	 0.66146	 1.42927	96.00000	1
31	 6.99727	 0.65183	 1.44493	90.00000	1
32	 6.60127	 0.67309	 1.41067	104.00000	1
33	 7.08675	 0.66743	 1.41967	100.00000	1
34	 5.42240	 0.67846	 1.40220	108.00000	1
35	 5.79179	 0.68603	 1.39039	114.00000	1
36	 6.21896	 0.66743	 1.41967	100.00000	1
37	 5.20868	 0.69307	 1.37954	120.00000	1
38	 5.83943	 0.68105	 1.39815	110.00000	1
39	 4.69271	 0.70580	 1.36022	132.00000	1
40	 4.84647	 0.69750	 1.37277	124.00000	1
41	 4.99633	 0.69078	 1.38306	118.00000	1
42	 4.28510	 0.70580	 1.36022	132.00000	1
43	 5.00392	 0.70580	 1.36022	132.00000	1
44	 3.88123	 0.71702	 1.34350	144.00000	1
45	 4.63020	 0.71524	 1.34613	142.00000	1
46	 4.41737	 0.70580	 1.36022	132.00000	1
47	 3.62546	 0.72048	 1.33841	148.00000	1
48	 3.29288	 0.71877	 1.34093	146.00000	1
49	 3.99048	 0.72702	 1.32886	156.00000	1
50	 3.39538	 0.73011	 1.32437	160.00000	1
51	 3.52923	 0.73310	 1.32005	164.00000	1
52	 3.01706	 0.73162	 1.32218	162.00000	1
53	 3.13938	 0.72702	 1.32886	156.00000	1
54	 2.78716	 0.73600	 1.31589	168.00000	1
55	 3.30814	 0.73456	 1.31795	166.00000	1
56	 2.91915	 0.74666	 1.30072	184.00000	1
57	 2.63000	 0.73879	 1.31189	172.00000	1
58	 2.17238	 0.74666	 1.30072	184.00000	1
59	 2.44003	 0.74282	 1.30615	178.00000	1
60	 2.20153	 0.74913	 1.29724	188.00000	1
61	 2.06676	 0.75385	 1.29064	196.00000	1
62	 1.88462	 0.75033	 1.29555	190.00000	1
63	 1.91977	 0.75385	 1.29064	196.00000	1
64	 2.21692	 0.75610	 1.28749	200.00000	1
65	 1.87016	 0.76148	 1.28004	210.00000	1
66	 1.88334	 0.75610	 1.28749	200.00000	1
67	 1.35663	 0.75610	 1.28749	200.00000	1
68	 1.53061	 0.76454	 1.27583	216.00000	1
69	 1.30467	 0.76748	 1.27180	222.00000	1
70	 1.41727	 0.76252	 1.27861	212.00000	1
71	 1.42771	 0.76651	 1.27312	220.00000	1
72	 1.23081	 0.76353	 1.27721	214.00000	0
73	 1.19861	 0.77737	 1.25837	244.00000	0
74	 1.16838	 0.77214	 1.26545	232.00000	0
75	 1.35229	 0.77392	 1.26303	236.00000	1
76	 1.00114	 0.77123	 1.26668	230.00000	0
77	 1.01432	 0.77566	 1.26067	240.00000	0
78	 0.91450	 0.78065	 1.25395	252.00000	0
79	 0.84154	 0.77304	 1.26423	234.00000	0
80	 0.81740	 0.78065	 1.25395	252.00000	0
81	 0.90009	 0.78224	 1.25182	256.00000	0
82	 0.75963	 0.78145	 1.25288	254.00000	-1
83	 0.83552	 0.78532	 1.24772	264.00000	0
84	 0.72685	 0.78065	 1.25395	252.00000	-1
85	 0.66449	 0.79246	 1.23825	284.00000	-1
86	 0.74128	 0.78302	 1.25078	258.00000	-1
87	 0.64905	 0.78969	 1.24191	276.00000	-1
88	 0.52764	 0.78826	 1.24380	272.00000	-1
89	 0.57546	 0.78607	 1.24672	266.00000	-1
90	 0.54863	 0.79767	 1.23140	300.00000	-1
91	 0.49220	 0.78969	 1.24191	276.00000	-1
92	 0.50373	 0.79246	 1.23825	284.00000	-1
93	 0.46698	 0.79446	 1.23561	290.00000	-1
94	 0.54308	 0.79511	 1.23475	292.00000	-1
95	 0.45852	 0.80013	 1.22818	308.00000	-1
96	 0.44117	 0.79313	 1.23736	286.00000	-1
97	 0.47088	 0.79891	 1.22978	304.00000	-1
98	 0.41008	 0.80133	 1.22663	312.00000	-1
99	 0.36081	 0.79891	 1.22978	304.00000	-1
100	 0.34119	 0.80645	 1.21998	330.00000	-1
101	 0.33550	 0.79767	 1.23140	300.00000	-1
102	 0.34733	 0.80700	 1.21927	332.00000	-1
103	 0.29474	 0.80308	 1.22434	318.00000	-1
104	 0.31828	 0.80250	 1.22510	316.00000	-1
105	 0.25083	 0.80808	 1.21788	336.00000	-1
106	 0.31326	 0.80423	 1.22286	322.00000	-1
107	 0.24616	 0.81017	 1.21518	344.00000	-1
108	 0.25267	 0.80808	 1.21788	336.00000	-1
109	 0.26872	 0.80808	 1.21788	336.00000	-1
110	 0.26484	 0.80966	 1.21585	342.00000	-1
111	 0.22719	 0.81017	 1.21518	344.00000	-1
112	 0.23453	 0.81319	 1.21131	356.00000	-1
113	 0.21875	 0.81270	 1.21194	354.00000	-1
114	 0.19783	 0.81220	 1.21258	352.00000	-1
115	 0.18104	 0.81791	 1.20529	376.00000	-1
116	 0.15197	 0.81417	 1.21006	360.00000	-1
117	 0.13856	 0.81368	 1.21068	358.00000	-1
118	 0.14916	 0.81513	 1.20884	364.00000	-1
119	 0.15547	 0.81881	 1.20414	380.00000	-1
120	 0.15392	 0.81837	 1.20471	378.00000	-1
121	 0.20646	 0.81700	 1.20645	372.00000	-1
122	 0.14751	 0.81700	 1.20645	372.00000	-1
123	 0.13138	 0.82014	 1.20246	386.00000	-1
124	 0.13962	 0.82476	 1.19662	408.00000	-1
125	 0.16360	 0.82058	 1.20190	388.00000	-1
126	 0.16050	 0.82144	 1.20081	392.00000	-1
127	 0.22606	 0.81837	 1.20471	378.00000	-1
128	 0.11978	 0.82476	 1.19662	408.00000	-1
129	 0.09674	 0.82208	 1.20001	395.00000	-1
130	 0.11349	 0.81677	 1.20674	371.00000	-1
131	 0.10555	 0.81270	 1.21194	354.00000	-1
132	 0.11963	 0.81017	 1.21518	344.00000	-1
133	 0.11396	 0.81441	 1.20975	361.00000	-1
134	 0.09283	 0.81017	 1.21518	344.00000	-1
135	 0.09856	 0.80423	 1.22286	322.00000	-1
136	 0.09562	 0.81170	 1.21322	350.00000	-1
137	 0.09654	 0.80591	 1.22069	328.00000	-1
138	 0.09274	 0.80645	 1.21998	330.00000	-1
139	 0.09557	 0.80479	 1.22213	324.00000	-1
140	 0.11111	 0.80279	 1.22472	317.00000	-1
141	 0.09707	 0.80754	 1.21857	334.00000	-1
142	 0.08699	 0.80043	 1.22779	309.00000	-1
143	 0.09262	 0.80451	 1.22249	323.00000	-1
144	 0.08073	 0.80162	 1.22624	313.00000	-1
145	 0.07746	 0.80535	 1.22140	326.00000	-1
146	 0.08627	 0.80221	 1.22548	315.00000	-1
147	 0.08240	 0.79798	 1.23099	301.00000	-1
148	 0.08159	 0.80103	 1.22701	311.00000	-1
149	 0.05956	 0.80103	 1.22701	311.00000	-1
150	 0.07986	 0.80162	 1.22624	313.00000	-1
151	 0.07655	 0.79860	 1.23018	303.00000	-1
152	 0.07043	 0.79511	 1.23475	292.00000	-1
153	 0.07146	 0.80221	 1.22548	315.00000	-1
154	 0.07089	 0.79544	 1.23433	293.00000	-1
155	 0.07410	 0.80279	 1.22472	317.00000	-1
156	 0.06833	 0.79544	 1.23433	293.00000	-1
157	 0.06482	 0.79640	 1.23306	296.00000	-1
158	 0.06366	 0.79983	 1.22858	307.00000	-1
159	 0.07031	 0.79347	 1.23692	287.00000	-1
160	 0.06394	 0.79860	 1.23018	303.00000	-1
161	 0.06176	 0.79446	 1.23561	290.00000	-1
162	 0.06039	 0.79983	 1.22858	307.00000	-1
163	 0.05623	 0.79640	 1.23306	296.00000	-1
164	 0.06250	 0.79212	 1.23870	283.00000	-1
165	 0.05239	 0.79798	 1.23099	301.00000	-1
166	 0.05877	 0.79313	 1.23736	286.00000	-1
167	 0.05317	 0.79860	 1.23018	303.00000	-1
168	 0.05550	 0.79246	 1.23825	284.00000	-1
169	 0.05565	 0.79212	 1.23870	283.00000	-1
170	 0.04767	 0.80013	 1.22818	308.00000	-1
171	 0.05335	 0.79004	 1.24144	277.00000	-1
172	 0.05011	 0.79576	 1.23390	294.00000	-1
173	 0.05086	 0.79212	 1.23870	283.00000	-1
174	 0.03962	 0.79640	 1.23306	296.00000	-1
175	 0.05372	 0.79479	 1.23518	291.00000	-1
176	 0.04192	 0.78898	 1.24285	274.00000	-1
177	 0.03996	 0.79479	 1.23518	291.00000	-1
178	 0.04647	 0.79039	 1.24098	278.00000	-1
179	 0.04612	 0.79544	 1.23433	293.00000	-1
180	 0.03880	 0.79380	 1.23648	288.00000	-1
181	 0.04184	 0.79039	 1.24098	278.00000	-1
182	 0.04237	 0.79279	 1.23781	285.00000	-1
183	 0.03706	 0.79446	 1.23561	290.00000	-1
184	 0.03307	 0.79279	 1.23781	285.00000	-1
185	 0.03725	 0.79177	 1.23915	282.00000	-1
186	 0.03756	 0.78898	 1.24285	274.00000	-1
187	 0.03646	 0.79479	 1.23518	291.00000	-1
188	 0.03386	 0.79177	 1.23915	282.00000	-1
189	 0.03756	 0.78933	 1.24238	275.00000	-1
190	 0.03528	 0.79177	 1.23915	282.00000	-1
191	 0.04098	 0.78969	 1.24191	276.00000	-1
192	 0.03418	 0.79279	 1.23781	285.00000	-1
193	 0.03377	 0.79109	 1.24006	280.00000	-1
194	 0.02762	 0.79109	 1.24006	280.00000	-1
195	 0.03019	 0.79212	 1.23870	283.00000	-1
196	 0.03073	 0.78898	 1.24285	274.00000	-1
197	 0.02992	 0.79246	 1.23825	284.00000	-1
198	 0.02992	 0.78933	 1.24238	275.00000	-1
199	 0.02836	 0.79039	 1.24098	278.00000	-1
200	 0.02986	 0.79177	 1.23915	282.00000	-1
201	 0.02553	 0.78969	 1.24191	276.00000	-1
202	 0.02991	 0.78933	 1.24238	275.00000	-1
203	 0.02762	 0.78681	 1.24574	268.00000	-1
204	 0.02624	 0.79380	 1.23648	288.00000	-1
205	 0.02146	 0.79212	 1.23870	283.00000	-1
206	 0.02324	 0.78826	 1.24380	272.00000	-1
207	 0.02415	 0.78754	 1.24476	270.00000	-1
208	 0.02015	 0.78969	 1.24191	276.00000	-1
209	 0.02036	 0.79004	 1.24144	277.00000	-1
210	 0.02266	 0.79109	 1.24006	280.00000	-1
211	 0.02234	 0.78607	 1.24672	266.00000	-1
212	 0.02169	 0.79246	 1.23825	284.00000	-1
213	 0.02296	 0.78717	 1.24525	269.00000	-1
214	 0.02227	 0.79039	 1.24098	278.00000	-1
215	 0.02176	 0.78898	 1.24285	274.00000	-1
216	 0.02000	 0.78607	 1.24672	266.00000	-1
217	 0.01775	 0.79212	 1.23870	283.00000	-1
218	 0.01818	 0.78898	 1.24285	274.00000	-1
219	 0.01834	 0.78754	 1.24476	270.00000	-1
220	 0.01972	 0.78826	 1.24380	272.00000	-1
221	 0.01757	 0.79074	 1.24052	279.00000	-1
222	 0.01731	 0.78969	 1.24191	276.00000	-1
223	 0.01940	 0.78754	 1.24476	270.00000	-1
224	 0.01986	 0.78681	 1.24574	268.00000	-1
225	 0.01977	 0.79004	 1.24144	277.00000	-1
226	 0.01700	 0.78681	 1.24574	268.00000	-1
227	 0.01600	 0.78898	 1.24285	274.00000	-1
228	 0.01715	 0.78607	 1.24672	266.00000	-1
229	 0.01854	 0.79109	 1.24006	280.00000	-1
230	 0.01675	 0.79004	 1.24144	277.00000	-1
231	 0.01680	 0.78532	 1.24772	264.00000	-1
232	 0.01501	 0.78681	 1.24574	268.00000	-1
233	 0.01775	 0.78681	 1.24574	268.00000	-1
234	 0.01709	 0.79039	 1.24098	278.00000	-1
235	 0.01432	 0.78790	 1.24428	271.00000	-1
236	 0.01406	 0.78681	 1.24574	268.00000	-1
237	 0.01733	 0.78607	 1.24672	266.00000	-1
238	 0.01577	 0.79039	 1.24098	278.00000	-1
239	 0.01486	 0.78532	 1.24772	264.00000	-1
240	 0.01572	 0.78717	 1.24525	269.00000	-1
241	 0.01572	 0.78681	 1.24574	268.00000	-1
242	 0.01445	 0.78826	 1.24380	272.00000	-1
243	 0.01523	 0.79039	 1.24098	278.00000	-1
244	 0.01577	 0.78754	 1.24476	270.00000	-1
245	 0.01387	 0.78607	 1.24672	266.00000	-1
246	 0.01390	 0.78717	 1.24525	269.00000	-1
247	 0.01345	 0.78969	 1.24191	276.00000	-1
248	 0.01628	 0.78681	 1.24574	268.00000	-1
249	 0.01875	 0.78456	 1.24872	262.00000	-1
250	 0.02039	 0.78681	 1.24574	268.00000	-1
251	 0.02040	 0.78681	 1.24574	268.00000	-1
252	 0.02309	 0.78494	 1.24822	263.00000	-1
253	 0.02355	 0.78826	 1.24380	272.00000	-1
254	 0.02524	 0.78607	 1.24672	266.00000	-1
255	 0.02293	 0.79109	 1.24006	280.00000	-1
256	 0.01673	 0.78681	 1.24574	268.00000	-1
257	 0.01179	 0.77523	 1.26125	239.00000	-1
258	 0.00875	 0.76148	 1.28004	210.00000	-1
259	 0.00803	 0.75610	 1.28749	200.00000	-1
260	 0.00687	 0.74852	 1.29810	187.00000	-1
261	 0.00729	 0.73600	 1.31589	168.00000	-1
262	 0.00713	 0.72858	 1.32659	158.00000	-1
263	 0.00554	 0.72381	 1.33354	152.00000	-1
264	 0.00620	 0.71251	 1.35019	139.00000	-1
265	 0.00517	 0.70580	 1.36022	132.00000	-1
266	 0.00483	 0.69858	 1.37113	125.00000	-1
267	 0.00521	 0.69307	 1.37954	120.00000	-1
268	 0.00427	 0.68232	 1.39617	111.00000	-1
269	 0.00460	 0.67030	 1.41510	102.00000	-1
270	 0.00456	 0.65183	 1.44493	90.00000	-1
271	 0.00391	 0.64492	 1.45634	86.00000	-1
272	 0.00355	 0.65349	 1.44221	91.00000	-1
273	 0.00307	 0.62556	 1.48898	76.00000	-1
274	 0.00425	 0.60248	 1.52937	66.00000	-1
275	 0.00318	 0.58628	 1.55871	60.00000	-1
276	 0.00261	 0.59730	 1.53865	64.00000	-1
277	 0.00349	 0.56448	 1.59959	53.00000	-1
278	 0.00498	 0.52144	 1.68539	42.00000	-1
279	 0.00473	 0.50717	 1.71550	39.00000	-1
280	 0.00696	 0.50717	 1.71550	39.00000	-1
281	 0.00455	 0.46132	 1.81845	31.00000	-1
282	 0.01080	 0.38893	 2.00427	22.00000	-1
283	 0.00856	 0.33240	 2.17511	17.00000	-1
284	 0.00972	 0.33240	 2.17511	17.00000	-1
285	 0.00629	 0.16989	 2.89451	 8.00000	-1
286	 0.00164	 0.02741	 4.69577	 3.00000	-1
287	 0.00117	 0.00009	 9.34836	 1.00000	0

Theta Spectrum
Two tail ChiSqr Confidence interval	0.00277778
   0	 2.40725	 0.96097	 1.03996	5737.00000	1
  10	 0.92674	 0.96147	 1.03943	5888.00000	-1
  20	 0.64732	 0.96323	 1.03759	6473.00000	-1
  30	 0.76475	 0.96103	 1.03990	5754.00000	-1
  40	 1.05611	 0.95046	 1.05104	3538.00000	1
  50	 0.65462	 0.93966	 1.06258	2369.00000	-1
  60	 0.94937	 0.93289	 1.06989	1907.00000	0
  70	 0.92389	 0.92709	 1.07620	1610.00000	-1
  80	 0.88591	 0.92370	 1.07991	1467.00000	-1
  90	 3.45837	 0.92290	 1.08079	1436.00000	1
 100	 1.19027	 0.92426	 1.07930	1489.00000	1
 110	 1.03092	 0.92764	 1.07560	1635.00000	0
 120	 0.95569	 0.93340	 1.06934	1937.00000	0
 130	 0.93182	 0.94163	 1.06046	2535.00000	-1
 140	 0.66135	 0.94995	 1.05158	3465.00000	-1
 150	 0.77992	 0.96130	 1.03960	5838.00000	-1
 160	 0.51415	 0.96337	 1.03744	6523.00000	-1
 170	 0.83535	 0.96162	 1.03927	5936.00000	-1
